This file was created by CODIAN@move
Montag, 13. September 2021		18:10

Profile mode:	1-D-Scan    Z
Timebase Counter [ms]:	1000
No. of Steps:	181
Pos. X	Pos.Y	Pos. Z	Probe	Reference	norm. Probe	norm. Factor
53.00	53.00	65.00	173400	19330000	173400	1.00000
53.00	53.00	64.90	173600	19300000	173870	1.00155
53.00	53.00	64.80	174100	19320000	174190	1.00052
53.00	53.00	64.70	175000	19350000	174819	0.99897
53.00	53.00	64.60	174900	19300000	175172	1.00155
53.00	53.00	64.50	175900	19350000	175718	0.99897
53.00	53.00	64.40	175800	19290000	176165	1.00207
53.00	53.00	64.30	176600	19320000	176691	1.00052
53.00	53.00	64.20	177200	19330000	177200	1.00000
53.00	53.00	64.10	177800	19340000	177708	0.99948
53.00	53.00	64.00	178600	19360000	178323	0.99845
53.00	53.00	63.90	179000	19360000	178723	0.99845
53.00	53.00	63.80	179000	19280000	179464	1.00259
53.00	53.00	63.70	179800	19310000	179986	1.00104
53.00	53.00	63.60	180300	19320000	180393	1.00052
53.00	53.00	63.50	180800	19300000	181081	1.00155
53.00	53.00	63.40	181400	19330000	181400	1.00000
53.00	53.00	63.30	182500	19360000	182217	0.99845
53.00	53.00	63.20	183700	19440000	182661	0.99434
53.00	53.00	63.10	184400	19430000	183451	0.99485
53.00	53.00	63.00	184300	19380000	183825	0.99742
53.00	53.00	62.90	184700	19370000	184319	0.99793
53.00	53.00	62.80	185700	19390000	185125	0.99691
53.00	53.00	62.70	186100	19380000	185620	0.99742
53.00	53.00	62.60	186700	19370000	186314	0.99793
53.00	53.00	62.50	187600	19400000	186923	0.99639
53.00	53.00	62.40	188000	19370000	187612	0.99793
53.00	53.00	62.30	188700	19370000	188310	0.99793
53.00	53.00	62.20	189200	19350000	189004	0.99897
53.00	53.00	62.10	189700	19350000	189504	0.99897
53.00	53.00	62.00	190500	19360000	190205	0.99845
53.00	53.00	61.90	191200	19350000	191002	0.99897
53.00	53.00	61.80	192000	19380000	191505	0.99742
53.00	53.00	61.70	192500	19340000	192400	0.99948
53.00	53.00	61.60	193200	19350000	193000	0.99897
53.00	53.00	61.50	194100	19350000	193899	0.99897
53.00	53.00	61.40	194600	19350000	194399	0.99897
53.00	53.00	61.30	195600	19360000	195297	0.99845
53.00	53.00	61.20	196300	19360000	195996	0.99845
53.00	53.00	61.10	196900	19350000	196696	0.99897
53.00	53.00	61.00	197200	19280000	197711	1.00259
53.00	53.00	60.90	197200	19240000	198122	1.00468
53.00	53.00	60.80	198100	19240000	199027	1.00468
53.00	53.00	60.70	199800	19330000	199800	1.00000
53.00	53.00	60.60	201100	19380000	200581	0.99742
53.00	53.00	60.50	202200	19390000	201574	0.99691
53.00	53.00	60.40	202800	19380000	202277	0.99742
53.00	53.00	60.30	203200	19320000	203305	1.00052
53.00	53.00	60.20	205300	19440000	204138	0.99434
53.00	53.00	60.10	204900	19330000	204900	1.00000
53.00	53.00	60.00	205800	19330000	205800	1.00000
53.00	53.00	59.90	206500	19330000	206500	1.00000
53.00	53.00	59.80	208100	19390000	207456	0.99691
53.00	53.00	59.70	209100	19390000	208453	0.99691
53.00	53.00	59.60	209800	19360000	209475	0.99845
53.00	53.00	59.50	210100	19320000	210209	1.00052
53.00	53.00	59.40	211600	19360000	211272	0.99845
53.00	53.00	59.30	213300	19390000	212640	0.99691
53.00	53.00	59.20	213800	19360000	213469	0.99845
53.00	53.00	59.10	215100	19380000	214545	0.99742
53.00	53.00	59.00	216700	19420000	215696	0.99537
53.00	53.00	58.90	217600	19390000	216927	0.99691
53.00	53.00	58.80	218200	19370000	217749	0.99793
53.00	53.00	58.70	219200	19360000	218860	0.99845
53.00	53.00	58.60	220200	19340000	220086	0.99948
53.00	53.00	58.50	221500	19350000	221271	0.99897
53.00	53.00	58.40	222500	19330000	222500	1.00000
53.00	53.00	58.30	223600	19330000	223600	1.00000
53.00	53.00	58.20	224700	19310000	224933	1.00104
53.00	53.00	58.10	226200	19330000	226200	1.00000
53.00	53.00	58.00	227000	19280000	227589	1.00259
53.00	53.00	57.90	228300	19280000	228892	1.00259
53.00	53.00	57.80	230000	19300000	230358	1.00155
53.00	53.00	57.70	231400	19330000	231400	1.00000
53.00	53.00	57.60	233000	19330000	233000	1.00000
53.00	53.00	57.50	234300	19320000	234421	1.00052
53.00	53.00	57.40	235600	19310000	235844	1.00104
53.00	53.00	57.30	238100	19390000	237363	0.99691
53.00	53.00	57.20	239300	19350000	239053	0.99897
53.00	53.00	57.10	240800	19340000	240675	0.99948
53.00	53.00	57.00	242000	19320000	242125	1.00052
53.00	53.00	56.90	243700	19330000	243700	1.00000
53.00	53.00	56.80	245300	19330000	245300	1.00000
53.00	53.00	56.70	247200	19330000	247200	1.00000
53.00	53.00	56.60	248800	19310000	249058	1.00104
53.00	53.00	56.50	250700	19310000	250960	1.00104
53.00	53.00	56.40	252800	19320000	252931	1.00052
53.00	53.00	56.30	254600	19320000	254732	1.00052
53.00	53.00	56.20	256800	19340000	256667	0.99948
53.00	53.00	56.10	258900	19330000	258900	1.00000
53.00	53.00	56.00	261000	19320000	261135	1.00052
53.00	53.00	55.90	263400	19330000	263400	1.00000
53.00	53.00	55.80	265500	19320000	265637	1.00052
53.00	53.00	55.70	267300	19310000	267577	1.00104
53.00	53.00	55.60	269200	19270000	270038	1.00311
53.00	53.00	55.50	273000	19350000	272718	0.99897
53.00	53.00	55.40	275400	19340000	275258	0.99948
53.00	53.00	55.30	277800	19330000	277800	1.00000
53.00	53.00	55.20	280600	19340000	280455	0.99948
53.00	53.00	55.10	283300	19330000	283300	1.00000
53.00	53.00	55.00	285100	19260000	286136	1.00363
53.00	53.00	54.90	288200	19270000	289097	1.00311
53.00	53.00	54.80	291700	19280000	292456	1.00259
53.00	53.00	54.70	295100	19300000	295559	1.00155
53.00	53.00	54.60	299500	19360000	299036	0.99845
53.00	53.00	54.50	302900	19340000	302743	0.99948
53.00	53.00	54.40	306400	19340000	306242	0.99948
53.00	53.00	54.30	311200	19410000	309917	0.99588
53.00	53.00	54.20	314800	19380000	313988	0.99742
53.00	53.00	54.10	318700	19370000	318042	0.99793
53.00	53.00	54.00	323000	19360000	322499	0.99845
53.00	53.00	53.90	327600	19350000	327261	0.99897
53.00	53.00	53.80	331500	19320000	331672	1.00052
53.00	53.00	53.70	336800	19330000	336800	1.00000
53.00	53.00	53.60	342400	19330000	342400	1.00000
53.00	53.00	53.50	348000	19320000	348180	1.00052
53.00	53.00	53.40	354400	19330000	354400	1.00000
53.00	53.00	53.30	361500	19350000	361126	0.99897
53.00	53.00	53.20	368100	19340000	367910	0.99948
53.00	53.00	53.10	376000	19370000	375224	0.99793
53.00	53.00	53.00	383100	19320000	383298	1.00052
53.00	53.00	52.90	392500	19350000	392094	0.99897
53.00	53.00	52.80	401600	19330000	401600	1.00000
53.00	53.00	52.70	411900	19340000	411687	0.99948
53.00	53.00	52.60	423800	19370000	422925	0.99793
53.00	53.00	52.50	435800	19370000	434900	0.99793
53.00	53.00	52.40	449000	19370000	448073	0.99793
53.00	53.00	52.30	463200	19380000	462005	0.99742
53.00	53.00	52.20	477500	19370000	476514	0.99793
53.00	53.00	52.10	492100	19340000	491846	0.99948
53.00	53.00	52.00	507600	19330000	507600	1.00000
53.00	53.00	51.90	523800	19340000	523529	0.99948
53.00	53.00	51.80	537700	19340000	537422	0.99948
53.00	53.00	51.70	551000	19350000	550430	0.99897
53.00	53.00	51.60	561000	19370000	559842	0.99793
53.00	53.00	51.50	568200	19370000	567027	0.99793
53.00	53.00	51.40	571700	19390000	569931	0.99691
53.00	53.00	51.30	568300	19360000	567419	0.99845
53.00	53.00	51.20	559200	19350000	558622	0.99897
53.00	53.00	51.10	545300	19360000	544455	0.99845
53.00	53.00	51.00	524100	19360000	523288	0.99845
53.00	53.00	50.90	497700	19340000	497443	0.99948
53.00	53.00	50.80	466800	19350000	466318	0.99897
53.00	53.00	50.70	429600	19340000	429378	0.99948
53.00	53.00	50.60	390100	19340000	389898	0.99948
