This file was created by CODIAN@move
Dienstag, 31. August 2021		18:01

Profile mode:	1-D-Scan    Z
Timebase Counter [ms]:	1000
No. of Steps:	151
Pos. X	Pos.Y	Pos. Z	Probe	Reference	norm. Probe	norm. Factor
53.00	53.00	60.00	302500	28650000	302500	1.00000
53.00	53.00	59.90	303800	28650000	303800	1.00000
53.00	53.00	59.80	305300	28670000	305087	0.99930
53.00	53.00	59.70	307000	28680000	306679	0.99895
53.00	53.00	59.60	309100	28750000	308025	0.99652
53.00	53.00	59.50	311300	28830000	309356	0.99376
53.00	53.00	59.40	312200	28780000	310790	0.99548
53.00	53.00	59.30	313300	28740000	312319	0.99687
53.00	53.00	59.20	314600	28710000	313943	0.99791
53.00	53.00	59.10	315700	28650000	315700	1.00000
53.00	53.00	59.00	317900	28710000	317236	0.99791
53.00	53.00	58.90	319500	28710000	318832	0.99791
53.00	53.00	58.80	321100	28710000	320429	0.99791
53.00	53.00	58.70	324000	28820000	322089	0.99410
53.00	53.00	58.60	325500	28800000	323805	0.99479
53.00	53.00	58.50	327200	28790000	325609	0.99514
53.00	53.00	58.40	329400	28830000	327343	0.99376
53.00	53.00	58.30	328800	28610000	329260	1.00140
53.00	53.00	58.20	332400	28770000	331014	0.99583
53.00	53.00	58.10	334500	28800000	332758	0.99479
53.00	53.00	58.00	336200	28760000	334914	0.99618
53.00	53.00	57.90	338400	28760000	337106	0.99618
53.00	53.00	57.80	340100	28750000	338917	0.99652
53.00	53.00	57.70	341100	28640000	341219	1.00035
53.00	53.00	57.60	343400	28660000	343280	0.99965
53.00	53.00	57.50	345800	28680000	345438	0.99895
53.00	53.00	57.40	348900	28730000	347928	0.99722
53.00	53.00	57.30	351300	28750000	350078	0.99652
53.00	53.00	57.20	353700	28760000	352347	0.99618
53.00	53.00	57.10	356500	28790000	354766	0.99514
53.00	53.00	57.00	358500	28740000	357377	0.99687
53.00	53.00	56.90	361800	28790000	360041	0.99514
53.00	53.00	56.80	364200	28770000	362681	0.99583
53.00	53.00	56.70	366500	28740000	365352	0.99687
53.00	53.00	56.60	368900	28740000	367745	0.99687
53.00	53.00	56.50	372100	28760000	370677	0.99618
53.00	53.00	56.40	375100	28770000	373535	0.99583
53.00	53.00	56.30	377900	28760000	376455	0.99618
53.00	53.00	56.20	380700	28740000	379508	0.99687
53.00	53.00	56.10	384600	28770000	382996	0.99583
53.00	53.00	56.00	387200	28750000	385853	0.99652
53.00	53.00	55.90	390400	28710000	389584	0.99791
53.00	53.00	55.80	393700	28720000	392740	0.99756
53.00	53.00	55.70	398200	28770000	396539	0.99583
53.00	53.00	55.60	402400	28820000	400026	0.99410
53.00	53.00	55.50	405300	28740000	404031	0.99687
53.00	53.00	55.40	409400	28760000	407834	0.99618
53.00	53.00	55.30	414000	28770000	412273	0.99583
53.00	53.00	55.20	417600	28750000	416147	0.99652
53.00	53.00	55.10	422200	28770000	420439	0.99583
53.00	53.00	55.00	425500	28690000	424907	0.99861
53.00	53.00	54.90	430900	28730000	429700	0.99722
53.00	53.00	54.80	436000	28730000	434786	0.99722
53.00	53.00	54.70	441200	28730000	439971	0.99722
53.00	53.00	54.60	445700	28690000	445079	0.99861
53.00	53.00	54.50	451700	28720000	450599	0.99756
53.00	53.00	54.40	457600	28740000	456167	0.99687
53.00	53.00	54.30	464800	28790000	462540	0.99514
53.00	53.00	54.20	471000	28790000	468710	0.99514
53.00	53.00	54.10	476900	28730000	475572	0.99722
53.00	53.00	54.00	483000	28690000	482327	0.99861
53.00	53.00	53.90	492200	28790000	489807	0.99514
53.00	53.00	53.80	499200	28720000	497983	0.99756
53.00	53.00	53.70	507700	28740000	506110	0.99687
53.00	53.00	53.60	517100	28760000	515122	0.99618
53.00	53.00	53.50	526200	28740000	524552	0.99687
53.00	53.00	53.40	537200	28780000	534773	0.99548
53.00	53.00	53.30	548500	28810000	545454	0.99445
53.00	53.00	53.20	558700	28730000	557144	0.99722
53.00	53.00	53.10	571400	28710000	570206	0.99791
53.00	53.00	53.00	585800	28750000	583762	0.99652
53.00	53.00	52.90	600800	28740000	598919	0.99687
53.00	53.00	52.80	616900	28720000	615396	0.99756
53.00	53.00	52.70	634800	28730000	633032	0.99722
53.00	53.00	52.60	653800	28780000	650847	0.99548
53.00	53.00	52.50	673500	28790000	670225	0.99514
53.00	53.00	52.40	691200	28680000	690477	0.99895
53.00	53.00	52.30	712800	28730000	710815	0.99722
53.00	53.00	52.20	733700	28750000	731148	0.99652
53.00	53.00	52.10	752100	28730000	750006	0.99722
53.00	53.00	52.00	770700	28790000	766952	0.99514
53.00	53.00	51.90	785800	28790000	781979	0.99514
53.00	53.00	51.80	796100	28780000	792504	0.99548
53.00	53.00	51.70	804500	28850000	798923	0.99307
53.00	53.00	51.60	804000	28820000	799257	0.99410
53.00	53.00	51.50	797400	28780000	793798	0.99548
53.00	53.00	51.40	783400	28720000	781491	0.99756
53.00	53.00	51.30	763500	28710000	761904	0.99791
53.00	53.00	51.20	739400	28790000	735804	0.99514
53.00	53.00	51.10	706000	28760000	703300	0.99618
53.00	53.00	51.00	668900	28800000	665416	0.99479
53.00	53.00	50.90	623300	28720000	621781	0.99756
53.00	53.00	50.80	576200	28770000	573797	0.99583
53.00	53.00	50.70	526100	28790000	523542	0.99514
53.00	53.00	50.60	472400	28720000	471249	0.99756
53.00	53.00	50.50	420800	28770000	419045	0.99583
53.00	53.00	50.40	367900	28750000	366620	0.99652
53.00	53.00	50.30	319500	28910000	316627	0.99101
53.00	53.00	50.20	269200	28620000	269482	1.00105
53.00	53.00	50.10	226500	28830000	225086	0.99376
53.00	53.00	50.00	186900	28850000	185604	0.99307
53.00	53.00	49.90	150100	28700000	149839	0.99826
53.00	53.00	49.80	118800	28710000	118552	0.99791
53.00	53.00	49.70	92200	28630000	92264	1.00070
53.00	53.00	49.60	70640	28690000	70542	0.99861
53.00	53.00	49.50	53000	28760000	52797	0.99618
53.00	53.00	49.40	38650	28730000	38542	0.99722
53.00	53.00	49.30	27510	28810000	27357	0.99445
53.00	53.00	49.20	19080	28730000	19027	0.99722
53.00	53.00	49.10	12840	28810000	12769	0.99445
53.00	53.00	49.00	8410	28740000	8384	0.99687
53.00	53.00	48.90	5480	28780000	5455	0.99548
53.00	53.00	48.80	3460	28710000	3453	0.99791
53.00	53.00	48.70	2140	28860000	2124	0.99272
53.00	53.00	48.60	1240	28760000	1235	0.99618
53.00	53.00	48.50	740	28760000	737	0.99618
53.00	53.00	48.40	420	28820000	418	0.99410
53.00	53.00	48.30	220	28800000	219	0.99479
53.00	53.00	48.20	120	28720000	120	0.99756
53.00	53.00	48.10	70	28860000	69	0.99272
53.00	53.00	48.00	40	28740000	40	0.99687
53.00	53.00	47.90	20	28860000	20	0.99272
53.00	53.00	47.80	10	28790000	10	0.99514
53.00	53.00	47.70	10	28720000	10	0.99756
53.00	53.00	47.60	10	28860000	10	0.99272
53.00	53.00	47.50	10	28730000	10	0.99722
53.00	53.00	47.40	0	28640000	0	1.00035
53.00	53.00	47.30	10	28810000	10	0.99445
53.00	53.00	47.20	0	28730000	0	0.99722
53.00	53.00	47.10	10	28800000	10	0.99479
53.00	53.00	47.00	0	28950000	0	0.98964
53.00	53.00	46.90	10	28890000	10	0.99169
53.00	53.00	46.80	10	28810000	10	0.99445
53.00	53.00	46.70	0	28810000	0	0.99445
53.00	53.00	46.60	0	28780000	0	0.99548
53.00	53.00	46.50	-10	20660000	-14	1.38674
53.00	53.00	46.40	-10	20540000	-14	1.39484
53.00	53.00	46.30	-10	20550000	-14	1.39416
53.00	53.00	46.20	-10	20590000	-14	1.39145
53.00	53.00	46.10	0	20540000	0	1.39484
53.00	53.00	46.00	0	20540000	0	1.39484
53.00	53.00	45.90	0	20550000	0	1.39416
53.00	53.00	45.80	-10	20610000	-14	1.39010
53.00	53.00	45.70	-10	9115000	-31	3.14317
53.00	53.00	45.60	-10	13530000	-21	2.11752
53.00	53.00	45.50	0	13950000	0	2.05376
53.00	53.00	45.40	-10	13970000	-21	2.05082
53.00	53.00	45.30	-10	13970000	-21	2.05082
53.00	53.00	45.20	-10	13980000	-20	2.04936
53.00	53.00	45.10	-10	14010000	-20	2.04497
53.00	53.00	45.00	-20	13980000	-41	2.04936
