This file was created by CODIAN@move
Dienstag, 31. August 2021		18:31

Profile mode:	1-D-Scan    Z
Timebase Counter [ms]:	1000
No. of Steps:	131
Pos. X	Pos.Y	Pos. Z	Probe	Reference	norm. Probe	norm. Factor
53.00	53.00	60.00	337500	31890000	337500	1.00000
53.00	53.00	59.90	339000	31870000	339213	1.00063
53.00	53.00	59.80	340700	31870000	340914	1.00063
53.00	53.00	59.70	341700	31820000	342452	1.00220
53.00	53.00	59.60	342900	31780000	344087	1.00346
53.00	53.00	59.50	344900	31820000	345659	1.00220
53.00	53.00	59.40	346800	31850000	347236	1.00126
53.00	53.00	59.30	349100	31880000	349210	1.00031
53.00	53.00	59.20	349600	31790000	350700	1.00315
53.00	53.00	59.10	351700	31830000	352363	1.00189
53.00	53.00	59.00	353200	31800000	354200	1.00283
53.00	53.00	58.90	355200	31830000	355870	1.00189
53.00	53.00	58.80	357000	31800000	358010	1.00283
53.00	53.00	58.70	358700	31790000	359828	1.00315
53.00	53.00	58.60	360200	31760000	361674	1.00409
53.00	53.00	58.50	363000	31810000	363913	1.00251
53.00	53.00	58.40	365100	31840000	365673	1.00157
53.00	53.00	58.30	367000	31830000	367692	1.00189
53.00	53.00	58.20	369100	31810000	370028	1.00251
53.00	53.00	58.10	369900	31690000	372234	1.00631
53.00	53.00	58.00	373300	31800000	374357	1.00283
53.00	53.00	57.90	374800	31730000	376690	1.00504
53.00	53.00	57.80	377300	31770000	378725	1.00378
53.00	53.00	57.70	379700	31770000	381134	1.00378
53.00	53.00	57.60	382600	31810000	383562	1.00251
53.00	53.00	57.50	385400	31830000	386126	1.00189
53.00	53.00	57.40	387900	31850000	388387	1.00126
53.00	53.00	57.30	391100	31910000	390855	0.99937
53.00	53.00	57.20	392900	31850000	393393	1.00126
53.00	53.00	57.10	395900	31850000	396397	1.00126
53.00	53.00	57.00	398600	31850000	399101	1.00126
53.00	53.00	56.90	401000	31820000	401882	1.00220
53.00	53.00	56.80	404500	31870000	404754	1.00063
53.00	53.00	56.70	407600	31870000	407856	1.00063
53.00	53.00	56.60	410600	31880000	410729	1.00031
53.00	53.00	56.50	413300	31840000	413949	1.00157
53.00	53.00	56.40	416400	31830000	417185	1.00189
53.00	53.00	56.30	418400	31730000	420510	1.00504
53.00	53.00	56.20	422000	31730000	424128	1.00504
53.00	53.00	56.10	426800	31830000	427605	1.00189
53.00	53.00	56.00	429900	31790000	431252	1.00315
53.00	53.00	55.90	434300	31860000	434709	1.00094
53.00	53.00	55.80	438600	31850000	439151	1.00126
53.00	53.00	55.70	442600	31870000	442878	1.00063
53.00	53.00	55.60	446300	31860000	446720	1.00094
53.00	53.00	55.50	448500	31710000	451046	1.00568
53.00	53.00	55.40	454000	31760000	455858	1.00409
53.00	53.00	55.30	459200	31810000	460355	1.00251
53.00	53.00	55.20	464600	31850000	465183	1.00126
53.00	53.00	55.10	469300	31840000	470037	1.00157
53.00	53.00	55.00	474900	31880000	475049	1.00031
53.00	53.00	54.90	479600	31840000	480353	1.00157
53.00	53.00	54.80	488200	32030000	486066	0.99563
53.00	53.00	54.70	493000	31970000	491766	0.99750
53.00	53.00	54.60	497700	31900000	497544	0.99969
53.00	53.00	54.50	503300	31860000	503774	1.00094
53.00	53.00	54.40	510900	31930000	510260	0.99875
53.00	53.00	54.30	516800	31880000	516962	1.00031
53.00	53.00	54.20	524000	31850000	524658	1.00126
53.00	53.00	54.10	531800	31870000	532134	1.00063
53.00	53.00	54.00	537400	31730000	540110	1.00504
53.00	53.00	53.90	545700	31730000	548452	1.00504
53.00	53.00	53.80	556000	31820000	557223	1.00220
53.00	53.00	53.70	567400	31910000	567044	0.99937
53.00	53.00	53.60	575900	31850000	576623	1.00126
53.00	53.00	53.50	585700	31770000	587912	1.00378
53.00	53.00	53.40	596900	31750000	599532	1.00441
53.00	53.00	53.30	611800	31870000	612184	1.00063
53.00	53.00	53.20	623700	31820000	625072	1.00220
53.00	53.00	53.10	640100	31910000	639699	0.99937
53.00	53.00	53.00	651800	31700000	655707	1.00599
53.00	53.00	52.90	670800	31780000	673122	1.00346
53.00	53.00	52.80	690800	31880000	691017	1.00031
53.00	53.00	52.70	708200	31770000	710875	1.00378
53.00	53.00	52.60	728500	31790000	730792	1.00315
53.00	53.00	52.50	753900	31970000	752013	0.99750
53.00	53.00	52.40	773900	31880000	774143	1.00031
53.00	53.00	52.30	795600	31870000	796099	1.00063
53.00	53.00	52.20	816100	31840000	817382	1.00157
53.00	53.00	52.10	837000	31900000	836738	0.99969
53.00	53.00	52.00	853500	31880000	853768	1.00031
53.00	53.00	51.90	867900	31930000	866813	0.99875
53.00	53.00	51.80	874400	31840000	875773	1.00157
53.00	53.00	51.70	877700	31850000	878802	1.00126
53.00	53.00	51.60	876200	31860000	877025	1.00094
53.00	53.00	51.50	870600	31960000	868693	0.99781
53.00	53.00	51.40	851300	31890000	851300	1.00000
53.00	53.00	51.30	826900	31840000	828199	1.00157
53.00	53.00	51.20	796700	31850000	797701	1.00126
53.00	53.00	51.10	763600	31960000	761928	0.99781
53.00	53.00	51.00	720900	31860000	721579	1.00094
53.00	53.00	50.90	676900	31970000	675206	0.99750
53.00	53.00	50.80	623700	31830000	624876	1.00189
53.00	53.00	50.70	570700	31810000	572135	1.00251
53.00	53.00	50.60	519900	32040000	517466	0.99532
53.00	53.00	50.50	463000	31940000	462275	0.99843
53.00	53.00	50.40	406600	31820000	407494	1.00220
53.00	53.00	50.30	355600	31980000	354599	0.99719
53.00	53.00	50.20	307100	31990000	306140	0.99687
53.00	53.00	50.10	259700	31940000	259293	0.99843
53.00	53.00	50.00	216100	31940000	215762	0.99843
53.00	53.00	49.90	176100	31840000	176377	1.00157
53.00	53.00	49.80	141000	31880000	141044	1.00031
53.00	53.00	49.70	111900	31860000	112005	1.00094
53.00	53.00	49.60	86760	31980000	86516	0.99719
53.00	53.00	49.50	65710	31780000	65937	1.00346
53.00	53.00	49.40	48610	31700000	48901	1.00599
53.00	53.00	49.30	35480	31760000	35625	1.00409
53.00	53.00	49.20	25390	31870000	25406	1.00063
53.00	53.00	49.10	17560	31840000	17588	1.00157
53.00	53.00	49.00	11760	31900000	11756	0.99969
53.00	53.00	48.90	7870	31960000	7853	0.99781
53.00	53.00	48.80	4960	31860000	4965	1.00094
53.00	53.00	48.70	3050	31770000	3062	1.00378
53.00	53.00	48.60	1870	31860000	1872	1.00094
53.00	53.00	48.50	1130	31850000	1131	1.00126
53.00	53.00	48.40	640	31920000	639	0.99906
53.00	53.00	48.30	360	31900000	360	0.99969
53.00	53.00	48.20	200	32000000	199	0.99656
53.00	53.00	48.10	120	31930000	120	0.99875
53.00	53.00	48.00	70	31970000	70	0.99750
53.00	53.00	47.90	40	32000000	40	0.99656
53.00	53.00	47.80	20	31940000	20	0.99843
53.00	53.00	47.70	10	31860000	10	1.00094
53.00	53.00	47.60	20	31820000	20	1.00220
53.00	53.00	47.50	20	31970000	20	0.99750
53.00	53.00	47.40	10	31990000	10	0.99687
53.00	53.00	47.30	0	31860000	0	1.00094
53.00	53.00	47.20	20	32010000	20	0.99625
