This file was created by CODIAN@move
Dienstag, 31. August 2021		18:23

Profile mode:	1-D-Scan    Z
Timebase Counter [ms]:	1000
No. of Steps:	131
Pos. X	Pos.Y	Pos. Z	Probe	Reference	norm. Probe	norm. Factor
53.00	53.00	60.00	207600	19260000	207600	1.00000
53.00	53.00	59.90	209000	19300000	208567	0.99793
53.00	53.00	59.80	210100	19310000	209556	0.99741
53.00	53.00	59.70	211200	19340000	210326	0.99586
53.00	53.00	59.60	213800	19470000	211494	0.98921
53.00	53.00	59.50	213300	19320000	212638	0.99689
53.00	53.00	59.40	214400	19350000	213403	0.99535
53.00	53.00	59.30	216000	19390000	214552	0.99330
53.00	53.00	59.20	217300	19420000	215510	0.99176
53.00	53.00	59.10	218700	19430000	216787	0.99125
53.00	53.00	59.00	219000	19390000	217532	0.99330
53.00	53.00	58.90	220600	19410000	218895	0.99227
53.00	53.00	58.80	222800	19520000	219832	0.98668
53.00	53.00	58.70	223500	19470000	221089	0.98921
53.00	53.00	58.60	224700	19480000	222162	0.98871
53.00	53.00	58.50	225600	19450000	223396	0.99023
53.00	53.00	58.40	226700	19430000	224717	0.99125
53.00	53.00	58.30	227700	19410000	225940	0.99227
53.00	53.00	58.20	229300	19440000	227177	0.99074
53.00	53.00	58.10	229700	19340000	228750	0.99586
53.00	53.00	58.00	230900	19350000	229826	0.99535
53.00	53.00	57.90	232700	19390000	231140	0.99330
53.00	53.00	57.80	233800	19370000	232472	0.99432
53.00	53.00	57.70	236300	19440000	234112	0.99074
53.00	53.00	57.60	237400	19420000	235444	0.99176
53.00	53.00	57.50	238300	19380000	236824	0.99381
53.00	53.00	57.40	240500	19420000	238519	0.99176
53.00	53.00	57.30	241600	19380000	240104	0.99381
53.00	53.00	57.20	243100	19390000	241470	0.99330
53.00	53.00	57.10	245100	19410000	243206	0.99227
53.00	53.00	57.00	247200	19450000	244785	0.99023
53.00	53.00	56.90	246800	19270000	246672	0.99948
53.00	53.00	56.80	249400	19320000	248625	0.99689
53.00	53.00	56.70	251500	19360000	250201	0.99483
53.00	53.00	56.60	253900	19400000	252068	0.99278
53.00	53.00	56.50	255800	19400000	253954	0.99278
53.00	53.00	56.40	257600	19380000	256005	0.99381
53.00	53.00	56.30	259400	19370000	257927	0.99432
53.00	53.00	56.20	263400	19500000	260158	0.98769
53.00	53.00	56.10	260800	19140000	262435	1.00627
53.00	53.00	56.00	264000	19210000	264687	1.00260
53.00	53.00	55.90	267600	19310000	266907	0.99741
53.00	53.00	55.80	272700	19490000	269482	0.98820
53.00	53.00	55.70	273900	19420000	271643	0.99176
53.00	53.00	55.60	276000	19390000	274150	0.99330
53.00	53.00	55.50	278400	19370000	276819	0.99432
53.00	53.00	55.40	280800	19370000	279205	0.99432
53.00	53.00	55.30	284100	19400000	282050	0.99278
53.00	53.00	55.20	288000	19450000	285187	0.99023
53.00	53.00	55.10	290700	19440000	288008	0.99074
53.00	53.00	55.00	292400	19340000	291190	0.99586
53.00	53.00	54.90	299200	19590000	294160	0.98315
53.00	53.00	54.80	302200	19560000	297565	0.98466
53.00	53.00	54.70	304500	19500000	300752	0.98769
53.00	53.00	54.60	307500	19460000	304340	0.98972
53.00	53.00	54.50	310800	19430000	308081	0.99125
53.00	53.00	54.40	313800	19370000	312018	0.99432
53.00	53.00	54.30	318300	19400000	316003	0.99278
53.00	53.00	54.20	322300	19380000	320304	0.99381
53.00	53.00	54.10	326800	19390000	324609	0.99330
53.00	53.00	54.00	331300	19370000	329419	0.99432
53.00	53.00	53.90	336700	19400000	334270	0.99278
53.00	53.00	53.80	342400	19410000	339754	0.99227
53.00	53.00	53.70	348400	19430000	345352	0.99125
53.00	53.00	53.60	353500	19430000	350407	0.99125
53.00	53.00	53.50	359600	19400000	357005	0.99278
53.00	53.00	53.40	366200	19390000	363745	0.99330
53.00	53.00	53.30	373200	19390000	370698	0.99330
53.00	53.00	53.20	381100	19390000	378545	0.99330
53.00	53.00	53.10	389300	19380000	386889	0.99381
53.00	53.00	53.00	398800	19400000	395922	0.99278
53.00	53.00	52.90	408700	19400000	405751	0.99278
53.00	53.00	52.80	419300	19410000	416060	0.99227
53.00	53.00	52.70	430000	19360000	427779	0.99483
53.00	53.00	52.60	442900	19380000	440158	0.99381
53.00	53.00	52.50	457500	19410000	453964	0.99227
53.00	53.00	52.40	471500	19400000	468097	0.99278
53.00	53.00	52.30	487000	19410000	483236	0.99227
53.00	53.00	52.20	502900	19400000	499271	0.99278
53.00	53.00	52.10	518100	19390000	514626	0.99330
53.00	53.00	52.00	532800	19370000	529774	0.99432
53.00	53.00	51.90	546300	19350000	543759	0.99535
53.00	53.00	51.80	558100	19320000	556367	0.99689
53.00	53.00	51.70	567500	19330000	565445	0.99638
53.00	53.00	51.60	573300	19370000	570044	0.99432
53.00	53.00	51.50	574200	19370000	570939	0.99432
53.00	53.00	51.40	569600	19370000	566365	0.99432
53.00	53.00	51.30	558500	19360000	555615	0.99483
53.00	53.00	51.20	541100	19360000	538305	0.99483
53.00	53.00	51.10	519100	19390000	515620	0.99330
53.00	53.00	51.00	491300	19450000	486501	0.99023
53.00	53.00	50.90	456700	19420000	452937	0.99176
53.00	53.00	50.80	418800	19440000	414922	0.99074
53.00	53.00	50.70	376800	19400000	374081	0.99278
53.00	53.00	50.60	334300	19400000	331888	0.99278
53.00	53.00	50.50	290400	19370000	288751	0.99432
53.00	53.00	50.40	247800	19380000	246266	0.99381
53.00	53.00	50.30	207400	19390000	206009	0.99330
53.00	53.00	50.20	170800	19390000	169655	0.99330
53.00	53.00	50.10	137500	19360000	136790	0.99483
53.00	53.00	50.00	109300	19380000	108623	0.99381
53.00	53.00	49.90	83750	19370000	83274	0.99432
53.00	53.00	49.80	62850	19340000	62590	0.99586
53.00	53.00	49.70	46740	19400000	46403	0.99278
53.00	53.00	49.60	33510	19400000	33268	0.99278
53.00	53.00	49.50	23370	19330000	23285	0.99638
53.00	53.00	49.40	16060	19410000	15936	0.99227
53.00	53.00	49.30	10770	19370000	10709	0.99432
53.00	53.00	49.20	7020	19440000	6955	0.99074
53.00	53.00	49.10	4400	19280000	4395	0.99896
53.00	53.00	49.00	2680	19360000	2666	0.99483
53.00	53.00	48.90	1640	19460000	1623	0.98972
53.00	53.00	48.80	940	19450000	931	0.99023
53.00	53.00	48.70	530	19340000	528	0.99586
53.00	53.00	48.60	260	19430000	258	0.99125
53.00	53.00	48.50	150	19370000	149	0.99432
53.00	53.00	48.40	70	19500000	69	0.98769
53.00	53.00	48.30	30	19400000	30	0.99278
53.00	53.00	48.20	10	19420000	10	0.99176
53.00	53.00	48.10	0	19350000	0	0.99535
53.00	53.00	48.00	-10	19370000	-10	0.99432
53.00	53.00	47.90	0	19360000	0	0.99483
53.00	53.00	47.80	-10	19400000	-10	0.99278
53.00	53.00	47.70	0	19470000	0	0.98921
53.00	53.00	47.60	-10	19450000	-10	0.99023
53.00	53.00	47.50	-10	19440000	-10	0.99074
53.00	53.00	47.40	-10	19430000	-10	0.99125
53.00	53.00	47.30	0	19400000	0	0.99278
53.00	53.00	47.20	-10	19430000	-10	0.99125
53.00	53.00	47.10	-10	19450000	-10	0.99023
53.00	53.00	47.00	-10	19400000	-10	0.99278
